%Time (s)	Wheel Position (deg)	Slide position (mm)	Wheel Speed (deg/s)	Slide Speed (mm/s)	Actual sample time (ms)	%2/8/20182:58 PM
0.000	3222.180	185.241	414.750	-302.554	18.000
0.020	3230.220	178.884	424.667	-362.822	22.000
0.040	3239.100	170.730	418.833	-423.985	18.000
0.060	3247.040	162.086	424.833	-451.432	21.000
0.080	3256.220	152.612	460.833	-494.938	20.000
0.100	3265.220	142.278	439.667	-540.106	20.000
0.120	3273.940	131.054	449.667	-575.934	20.000
0.140	3283.280	119.246	472.750	-610.675	20.000
0.160	3292.780	106.578	483.750	-655.332	20.000
0.180	3302.480	93.035	461.500	-701.076	18.000
0.200	3311.440	78.647	476.417	-727.627	20.000
0.220	3321.800	64.060	544.667	-734.025	22.000
0.240	3333.000	49.412	565.083	-723.469	20.000
0.260	3344.240	35.316	553.000	-683.610	19.000
0.280	3355.340	22.326	589.250	-605.364	21.000
0.300	3367.800	11.439	623.750	-474.912	20.000
0.320	3380.060	3.685	612.833	-288.095	20.000
0.340	3392.300	0.169	609.000	-60.012	21.000
0.360	3404.260	1.305	575.750	169.735	19.000
0.380	3415.240	6.802	530.750	376.897	20.000
0.400	3425.400	16.015	468.083	525.647	19.000
0.420	3434.040	27.393	422.167	604.789	21.000
0.440	3442.320	39.877	383.083	635.242	21.000
0.460	3449.280	52.544	325.917	626.157	20.000
0.480	3455.380	64.767	273.083	595.256	18.000
0.500	3460.300	76.237	235.083	545.481	20.000
0.520	3464.940	86.555	229.917	492.570	22.000
0.540	3469.340	95.937	189.083	441.068	18.000
0.560	3472.520	104.152	152.417	380.032	21.000
0.580	3475.560	111.154	141.000	321.620	20.000
0.600	3478.120	117.081	117.250	273.444	20.000
0.620	3480.300	122.178	102.833	238.448	20.000
0.640	3482.300	126.723	100.833	220.342	21.000
0.660	3484.320	131.069	93.500	214.008	19.000
0.680	3486.080	135.322	92.750	211.705	20.000
0.700	3488.100	139.606	106.833	224.373	21.000
0.720	3490.280	144.213	105.833	219.510	20.000
0.740	3492.280	148.343	94.333	206.267	18.000
0.760	3494.120	152.535	96.833	209.721	20.000
0.780	3496.180	156.681	104.333	202.108	21.000
0.800	3498.240	160.581	100.917	187.137	20.000
0.820	3500.200	164.205	93.250	179.268	19.000
0.840	3502.060	167.813	102.667	181.251	21.000
0.860	3504.360	171.514	121.083	193.279	20.000
0.880	3506.880	175.552	133.917	207.482	20.000
0.900	3509.700	179.728	144.083	206.139	20.000
0.920	3512.640	183.736	153.750	194.559	20.000
0.940	3515.860	187.513	165.667	185.538	21.000
0.960	3519.260	191.137	174.083	173.382	19.000
0.980	3522.900	194.408	197.000	153.164	20.000
1.000	3527.180	197.279	224.500	139.665	19.000
1.020	3531.940	199.889	263.250	107.804	21.000
1.040	3537.700	201.471	301.417	54.830	20.000
1.060	3543.880	202.070	315.250	4.926	20.000
1.080	3550.360	201.563	341.833	-65.066	20.000
1.100	3557.560	199.444	371.583	-139.345	20.000
1.120	3565.100	196.081	376.833	-194.431	19.000
1.140	3572.620	191.659	377.167	-252.907	19.000
1.160	3580.400	185.947	424.000	-317.781	22.000
1.180	3589.440	179.068	442.333	-358.535	21.000
1.200	3597.900	171.621	425.417	-398.394	20.000
1.220	3606.460	163.099	410.500	-446.058	18.000
1.240	3614.460	153.809	420.833	-486.684	20.000
1.260	3623.400	143.629	451.917	-529.038	20.000
1.280	3632.420	132.666	455.000	-568.193	21.000
1.300	3641.680	120.919	478.750	-603.765	20.000
1.320	3651.500	108.497	490.167	-642.664	21.000
1.340	3661.140	95.185	469.417	-689.048	19.000
1.360	3670.460	81.027	485.917	-720.142	20.000
1.380	3680.700	66.533	526.250	-725.068	20.000
1.400	3691.360	52.114	529.750	-719.630	19.000
1.420	3702.040	37.896	569.750	-693.527	22.000
1.440	3714.040	24.645	586.000	-625.710	19.000
1.460	3725.400	13.221	586.000	-502.743	20.000
1.480	3737.600	4.883	616.417	-325.906	20.000
1.500	3749.880	0.461	612.917	-104.797	20.000
1.520	3761.940	0.783	580.500	131.604	20.000
1.540	3773.020	5.574	538.667	343.756	20.000
1.560	3783.400	14.203	481.500	504.534	19.000
1.580	3792.280	25.320	424.167	595.704	20.000
1.600	3800.460	37.665	386.167	630.508	20.000
1.620	3807.700	50.302	339.417	631.468	20.000
1.640	3814.080	62.740	302.250	604.725	21.000
1.660	3819.780	74.363	261.667	558.404	21.000
1.680	3824.560	85.020	223.833	504.406	20.000
1.700	3828.740	94.524	184.667	448.937	18.000
1.720	3832.040	102.970	162.833	392.188	21.000
1.740	3835.300	110.217	149.500	335.887	20.000
1.760	3837.960	116.436	121.750	283.425	20.000
1.780	3840.220	121.641	103.833	244.718	20.000
1.800	3842.180	126.340	96.667	224.692	20.000
1.820	3844.140	130.716	98.583	217.719	20.000
1.840	3846.120	135.107	97.500	219.702	19.000
1.860	3848.080	139.529	105.167	227.060	21.000
1.880	3850.300	144.120	107.500	220.342	20.000
1.900	3852.340	148.328	101.583	210.745	20.000
1.920	3854.400	152.612	104.500	215.671	21.000
1.940	3856.500	156.880	103.500	205.179	20.000
1.960	3858.500	160.780	93.167	187.393	18.000
1.980	3860.300	164.435	97.250	180.931	21.000
2.000	3862.440	168.074	110.500	182.787	20.000
2.020	3864.680	171.805	112.417	194.942	19.000
2.040	3867.020	175.874	132.833	208.186	21.000
2.060	3869.960	180.051	144.833	206.331	19.000
2.080	3872.800	184.074	155.000	196.350	21.000
2.100	3876.160	187.882	165.417	183.170	19.000
2.120	3879.420	191.398	173.917	170.503	20.000
2.140	3883.220	194.684	202.333	155.020	21.000
2.160	3887.540	197.571	233.250	136.658	20.000
2.180	3892.560	200.058	265.750	103.389	20.000
2.200	3898.160	201.594	296.083	50.479	20.000
2.220	3904.400	202.054	326.833	-1.727	20.000
2.240	3911.200	201.425	353.000	-73.127	20.000
2.260	3918.440	199.122	363.250	-145.359	20.000
2.280	3925.760	195.682	380.583	-202.940	20.000
2.300	3933.700	190.999	406.250	-263.783	20.000
2.320	3941.940	185.149	417.667	-322.324	20.000
2.340	3950.380	178.162	427.167	-371.267	20.000
2.360	3958.960	170.347	420.833	-411.957	20.000
2.380	3967.340	161.686	441.417	-452.456	21.000
2.400	3976.620	152.212	464.333	-500.440	20.000
2.420	3985.720	141.679	447.000	-546.888	19.000
2.440	3994.560	130.393	443.167	-582.268	19.000
2.460	4003.580	118.386	462.500	-618.352	20.000
2.480	4013.140	105.611	498.000	-664.544	21.000
2.500	4023.360	91.822	503.500	-709.713	20.000
2.520	4033.280	77.373	510.000	-727.499	20.000
2.540	4043.860	62.817	537.500	-732.682	20.000
2.560	4054.740	48.168	556.333	-725.196	20.000
2.580	4066.040	34.026	561.750	-683.738	19.000
2.600	4077.200	21.098	563.083	-601.078	20.000
2.620	4088.720	10.349	597.500	-461.349	21.000
2.640	4101.040	3.010	620.583	-263.207	20.000
2.660	4113.360	0.046	608.583	-29.046	19.000
2.680	4125.380	1.843	611.000	203.004	22.000
2.700	4137.380	7.985	531.667	408.823	18.000
2.720	4146.560	17.796	433.917	550.727	20.000
2.740	4155.200	29.558	436.917	618.928	21.000
2.760	4163.800	42.257	383.000	645.159	20.000
2.780	4170.440	55.124	315.083	635.562	20.000
2.800	4176.560	67.485	280.417	595.064	19.000
2.820	4181.660	78.847	241.250	544.137	20.000
2.840	4186.260	89.227	211.167	491.355	19.000
2.860	4190.140	98.471	186.417	432.878	21.000
2.880	4193.720	106.547	161.750	375.810	20.000
2.900	4196.600	113.518	133.417	321.108	20.000
2.920	4199.120	119.415	117.167	267.814	20.000
2.940	4201.320	124.343	105.333	232.946	20.000
2.960	4203.360	128.873	96.583	222.005	19.000
2.980	4205.240	133.280	98.083	217.207	22.000
3.000	4207.300	137.625	101.917	224.628	19.000
3.020	4209.300	142.232	102.000	225.524	20.000
3.040	4211.380	146.577	102.250	212.153	20.000
3.060	4213.400	150.769	105.167	210.937	21.000
3.080	4215.560	155.007	103.000	208.506	19.000
3.100	4217.500	159.045	96.583	193.023	21.000
3.120	4219.460	162.746	97.333	181.123	20.000
3.140	4221.420	166.354	101.500	180.163	20.000
3.160	4223.560	170.009	112.000	188.353	20.000
3.180	4225.940	173.909	131.167	199.933	21.000
3.200	4228.740	177.978	135.500	207.098	18.000
3.220	4231.380	182.124	144.167	202.492	21.000
3.240	4234.560	186.024	164.917	188.992	21.000
3.260	4237.900	189.678	167.000	175.621	19.000
3.280	4241.320	193.056	185.583	165.128	20.000
3.300	4245.380	196.235	213.833	146.319	19.000
3.320	4249.860	198.845	235.083	117.784	19.000
3.340	4254.900	200.872	281.917	77.798	21.000
3.360	4261.060	201.885	311.917	27.639	20.000
3.380	4267.320	201.885	331.083	-38.003	20.000
3.400	4274.360	200.319	364.917	-112.026	20.000
3.420	4281.840	197.463	384.000	-173.190	20.000
3.440	4289.640	193.394	384.833	-235.825	19.000
3.460	4297.400	188.051	426.250	-295.837	22.000
3.480	4306.480	181.617	423.250	-345.868	19.000
3.500	4314.260	174.247	405.583	-391.996	20.000
3.520	4322.940	165.970	438.583	-431.855	20.000
3.540	4331.740	156.957	454.250	-474.976	21.000
3.560	4341.060	146.946	463.167	-524.560	20.000
3.580	4350.200	136.044	458.583	-559.620	20.000
3.600	4359.460	124.558	468.417	-596.152	21.000
3.620	4368.880	112.167	463.583	-638.569	19.000
3.640	4378.080	99.008	473.250	-682.714	20.000
3.660	4387.900	84.897	499.417	-723.149	20.000
3.680	4398.040	70.248	519.500	-734.793	20.000
3.700	4408.700	55.646	544.667	-724.364	20.000
3.720	4419.800	41.351	566.167	-708.434	20.000
3.740	4431.260	27.562	569.167	-652.900	20.000
3.760	4442.640	15.601	587.667	-539.275	20.000
3.780	4454.820	6.342	621.333	-372.803	20.000
3.800	4467.240	1.013	603.583	-153.228	19.000
3.820	4478.940	0.338	588.333	86.755	21.000
3.840	4490.740	4.345	574.500	302.810	20.000
3.860	4501.620	12.176	499.250	477.407	19.000
3.880	4510.800	23.048	448.000	590.393	21.000
3.900	4519.600	35.378	409.833	636.714	20.000
3.920	4527.060	48.260	340.083	647.910	19.000
3.940	4533.340	61.066	299.417	623.598	20.000
3.960	4539.100	73.058	269.083	577.086	20.000
3.980	4544.060	84.098	226.250	524.560	19.000
4.000	4548.240	94.018	202.667	469.858	21.000
4.020	4552.160	102.847	175.750	406.071	20.000
4.040	4555.260	110.278	145.417	345.228	20.000
4.060	4558.040	116.727	127.417	296.476	20.000
4.080	4560.380	122.209	111.167	257.769	20.000
4.100	4562.540	127.138	104.667	235.185	20.000
4.120	4564.580	131.698	97.917	224.692	19.000
4.140	4566.520	136.197	103.750	225.588	21.000
4.160	4568.720	140.758	107.083	234.609	20.000
4.180	4570.760	145.472	101.250	220.470	21.000
4.200	4572.800	149.587	102.417	209.082	20.000
4.220	4574.860	153.917	104.000	216.695	20.000
4.240	4576.940	158.139	101.583	199.357	20.000
4.260	4578.920	161.886	98.500	181.635	19.000
4.280	4580.900	165.494	98.083	180.547	20.000
4.300	4582.900	169.164	106.667	187.329	20.000
4.320	4585.240	173.034	130.000	202.684	22.000
4.340	4588.040	177.241	140.250	213.496	19.000
4.360	4590.820	181.463	144.667	203.324	20.000
4.380	4593.880	185.364	161.167	194.367	20.000
4.400	4597.240	189.218	169.083	181.699	19.000
4.420	4600.720	192.626	191.583	169.031	21.000
4.440	4604.960	195.958	224.083	154.956	21.000
4.460	4609.660	198.722	250.750	122.519	20.000
4.480	4614.980	200.795	276.250	81.573	19.000
4.500	4620.700	201.916	298.250	30.326	19.000
4.520	4626.980	201.931	333.667	-33.269	20.000
4.540	4634.080	200.534	377.167	-106.012	21.000
4.560	4641.940	197.724	396.417	-171.142	20.000
4.580	4649.860	193.701	405.833	-234.865	21.000
4.600	4658.080	188.342	396.083	-297.820	18.000
4.620	4665.800	181.847	403.667	-350.474	20.000
4.640	4674.400	174.370	448.333	-395.899	21.000
4.660	4683.540	166.032	451.500	-438.061	20.000
4.680	4692.400	156.834	445.833	-483.485	20.000
4.700	4701.440	146.700	456.667	-527.950	21.000
4.720	4710.600	135.752	450.667	-565.762	18.000
4.740	4719.540	124.082	459.500	-601.398	21.000
4.760	4729.040	111.676	483.583	-640.489	20.000
4.780	4738.680	98.424	459.583	-688.089	18.000
4.800	4747.660	84.206	486.500	-729.099	21.000
4.820	4758.200	69.465	522.417	-733.129	20.000
4.840	4768.440	54.986	530.667	-723.277	20.000
4.860	4779.540	40.614	566.500	-706.898	20.000
4.880	4791.020	26.978	585.917	-647.590	20.000
4.900	4802.880	15.063	584.583	-533.708	19.000
4.920	4814.540	6.004	617.417	-361.159	21.000
4.940	4827.400	0.906	613.917	-142.608	19.000
4.960	4839.000	0.399	596.500	91.617	21.000
4.980	4851.220	4.453	581.250	306.393	21.000
5.000	4861.940	12.391	503.583	481.950	20.000
5.020	4871.420	23.309	443.833	590.074	20.000
5.040	4879.740	35.577	391.833	631.020	20.000
5.060	4887.100	48.322	338.417	642.408	20.000
5.080	4893.340	61.051	296.083	619.184	20.000
5.100	4899.000	72.920	263.500	568.769	20.000
5.120	4903.880	83.761	229.333	514.195	20.000
5.140	4908.180	93.496	195.583	463.012	19.000
5.160	4911.740	102.248	167.667	405.240	21.000
5.180	4914.940	109.695	150.167	344.716	20.000
5.200	4917.720	116.098	124.417	294.685	19.000
5.220	4919.980	121.564	111.083	257.194	21.000
5.240	4922.200	126.478	102.583	234.417	19.000
5.260	4924.120	131.007	99.333	220.726	21.000
5.280	4926.220	135.384	105.333	219.062	20.000
5.300	4928.300	139.837	103.417	230.770	20.000
5.320	4930.360	144.535	102.583	226.356	19.000
5.340	4932.420	148.834	106.000	211.001	22.000
5.360	4934.560	153.042	100.500	211.321	18.000
5.380	4936.460	157.249	99.333	203.260	21.000
5.400	4938.560	161.134	103.417	186.497	21.000
5.420	4940.580	164.788	102.750	185.538	19.000
5.440	4942.700	168.596	107.083	189.888	20.000
5.460	4944.920	172.419	121.500	200.189	20.000
5.480	4947.580	176.611	139.667	214.008	20.000
5.500	4950.460	180.865	148.250	205.115	20.000
5.520	4953.500	184.795	155.083	195.070	19.000
5.540	4956.700	188.665	167.667	186.177	20.000
5.560	4960.280	192.196	194.500	167.752	22.000
5.580	4964.460	195.390	214.667	155.148	19.000
5.600	4968.900	198.338	240.500	132.244	20.000
5.620	4974.140	200.565	278.167	89.634	20.000
5.640	4980.000	201.855	309.417	37.811	20.000
5.660	4986.500	202.008	340.167	-25.208	21.000
5.680	4993.520	200.811	353.500	-93.537	19.000
5.700	5000.660	198.262	372.250	-162.889	20.000
5.720	5008.440	194.331	398.167	-225.588	20.000
5.740	5016.520	189.264	410.500	-284.704	20.000
5.760	5024.840	182.968	420.917	-341.197	20.000
5.780	5033.340	175.690	430.167	-383.487	20.000
5.800	5041.980	167.629	424.917	-427.568	20.000
5.820	5050.400	158.585	432.417	-472.417	20.000
5.840	5059.340	148.742	454.167	-515.539	20.000
5.860	5068.440	137.979	449.083	-556.869	19.000
5.880	5077.300	126.508	441.500	-589.626	20.000
5.900	5086.300	114.363	475.417	-628.461	20.000
5.920	5096.260	101.327	496.000	-676.445	21.000
5.940	5106.020	87.354	490.750	-718.031	20.000
5.960	5116.020	72.782	513.667	-728.203	20.000
5.980	5126.600	58.333	542.833	-722.957	20.000
6.000	5137.620	43.930	548.917	-713.488	19.000
6.020	5148.540	30.049	546.167	-662.561	19.000
6.040	5159.800	17.750	617.417	-561.987	23.000
6.060	5172.960	7.908	633.333	-411.062	18.000
6.080	5184.800	1.674	579.333	-199.805	20.000
6.100	5196.540	0.092	624.000	39.859	22.000
6.120	5209.400	3.178	596.417	262.888	19.000
6.140	5220.000	10.380	490.583	452.328	20.000
6.160	5229.340	20.883	459.750	580.925	21.000
6.180	5238.320	33.166	407.833	636.714	19.000
6.200	5245.620	46.049	347.583	648.806	20.000
6.220	5252.360	58.901	316.500	628.845	20.000
6.240	5258.240	71.047	273.083	584.507	20.000
6.260	5263.320	82.225	237.083	533.645	21.000
6.280	5267.760	92.359	207.833	478.559	19.000
6.300	5271.620	101.327	173.667	415.348	20.000
6.320	5274.760	109.004	149.333	358.407	20.000
6.340	5277.640	115.699	133.000	306.457	20.000
6.360	5280.080	121.319	114.167	261.544	20.000
6.380	5282.260	126.294	104.833	239.535	21.000
6.400	5284.320	130.992	102.833	232.114	20.000
6.420	5286.400	135.599	105.167	224.692	19.000
6.440	5288.520	140.051	106.083	232.626	19.000
6.460	5290.620	144.842	102.000	227.444	20.000
6.480	5292.620	149.111	102.333	214.264	21.000
6.500	5294.720	153.487	103.833	218.934	19.000
6.520	5296.760	157.786	102.333	205.819	20.000
6.540	5298.820	161.702	102.167	189.312	20.000
6.560	5300.860	165.433	103.000	186.753	20.000
6.580	5303.000	169.226	115.000	192.511	21.000
6.600	5305.480	173.156	130.000	201.724	20.000
6.620	5308.180	177.287	141.417	210.937	21.000
6.640	5311.100	181.510	145.000	203.963	19.000
6.660	5314.020	185.425	157.250	195.646	20.000
6.680	5317.400	189.310	169.167	183.682	19.000
6.700	5320.840	192.734	190.667	164.297	20.000
6.720	5325.060	195.897	217.333	150.605	21.000
6.740	5329.540	198.692	243.000	126.102	19.000
6.760	5334.840	200.826	282.500	81.573	21.000
6.780	5340.760	201.901	302.500	31.222	19.000
6.800	5347.020	201.993	341.333	-32.629	21.000
6.820	5354.380	200.534	376.167	-107.804	20.000
6.840	5361.880	197.724	372.500	-173.318	20.000
6.860	5369.360	193.624	387.000	-236.400	20.000
6.880	5377.460	188.312	422.833	-296.412	21.000
6.900	5386.140	181.970	434.250	-309.528	20.000
6.920	5394.640	175.629	405.083	-388.157	18.000
6.940	5402.580	166.446	428.000	-466.979	20.000
6.960	5411.760	157.280	448.083	-477.088	21.000
6.980	5420.380	147.253	440.417	-516.690	20.000
7.000	5429.500	136.581	461.917	-559.940	20.000
7.020	5438.800	124.866	468.833	-601.014	20.000
7.040	5448.260	112.566	478.417	-636.138	20.000
7.060	5457.940	99.377	490.500	-681.499	20.000
7.080	5467.800	85.342	480.583	-722.957	19.000
7.100	5477.400	70.632	521.250	-733.577	21.000
7.120	5488.600	56.122	549.333	-726.028	20.000
7.140	5499.240	41.673	547.833	-711.825	20.000
7.160	5510.680	27.915	587.167	-655.076	20.000
7.180	5522.560	15.815	587.833	-545.225	19.000
7.200	5534.240	6.480	599.833	-377.217	20.000
7.220	5546.640	1.044	635.000	-158.731	22.000
7.240	5559.360	0.276	617.333	84.516	20.000
7.260	5571.120	4.284	565.417	303.514	20.000
7.280	5581.920	12.115	508.167	475.232	20.000
7.300	5591.420	22.909	445.583	588.026	20.000
7.320	5599.800	35.224	395.083	634.667	20.000
7.340	5607.220	48.030	341.750	643.560	19.000
7.360	5613.500	60.759	292.000	621.167	20.000
7.380	5619.000	72.736	260.667	577.598	20.000
7.400	5623.960	83.791	233.833	523.920	20.000
7.420	5628.340	93.665	203.833	466.851	20.000
7.440	5632.100	102.447	169.750	406.327	19.000
7.460	5635.200	109.941	149.583	350.026	21.000
7.480	5638.100	116.482	131.417	297.948	21.000
7.500	5640.440	121.933	107.167	257.066	19.000
7.520	5642.480	126.877	100.833	235.057	20.000
7.540	5644.520	131.407	101.167	222.645	20.000
7.560	5646.540	135.860	103.083	222.709	20.000
7.580	5648.640	140.359	104.000	231.858	20.000
7.600	5650.700	145.042	105.500	221.430	21.000
7.620	5652.840	149.218	102.833	212.217	19.000
7.640	5654.820	153.594	102.000	218.295	20.000
7.660	5656.920	157.848	101.250	202.428	19.000
7.680	5658.860	161.686	97.000	186.497	20.000
7.700	5660.860	165.372	105.083	181.443	21.000
7.720	5663.060	169.026	110.167	190.720	20.000
7.740	5665.300	173.018	121.667	202.364	20.000
7.760	5667.940	177.087	135.583	208.506	19.000
7.780	5670.700	181.295	143.167	203.452	20.000
7.800	5673.720	185.195	163.333	194.367	21.000
7.820	5677.180	189.049	170.917	182.531	19.000
7.840	5680.580	192.473	182.583	166.792	21.000
7.860	5684.560	195.713	207.083	151.693	19.000
7.880	5688.940	198.477	244.917	126.230	21.000
7.900	5694.360	200.672	283.250	86.307	20.000
7.920	5700.200	201.855	307.000	35.700	20.000
7.940	5706.660	202.024	337.250	-26.999	20.000
7.960	5713.660	200.718	363.250	-100.254	21.000
7.980	5721.100	198.062	370.000	-162.569	19.000
8.000	5728.540	194.223	396.750	-224.948	21.000
8.020	5736.900	189.079	410.667	-285.792	19.000
8.040	5744.840	182.845	395.667	-337.487	19.000
8.060	5752.940	175.629	429.667	-381.248	21.000
8.080	5761.900	167.613	436.000	-422.322	20.000
8.100	5770.260	158.723	416.750	-466.275	19.000
8.120	5778.760	148.957	438.417	-511.956	20.000
8.140	5787.800	138.286	455.917	-549.511	20.000
8.160	5797.000	126.984	475.583	-586.107	21.000
8.180	5806.760	114.823	485.750	-626.093	21.000
8.200	5816.300	101.925	468.083	-668.767	19.000
8.220	5825.620	88.075	479.083	-714.832	20.000
8.240	5835.540	73.504	499.333	-729.611	19.000
8.260	5845.700	59.009	540.083	-727.307	21.000
8.280	5857.100	44.498	573.083	-716.623	20.000
8.300	5868.480	30.587	576.917	-667.615	20.000
8.320	5880.240	18.119	597.833	-568.449	21.000
8.340	5892.360	8.199	612.167	-415.732	20.000
8.360	5904.660	1.827	620.500	-209.274	20.000
8.380	5916.920	0.031	576.750	31.861	18.000
8.400	5927.800	2.994	552.167	251.755	20.000
8.420	5939.060	9.889	544.583	440.940	21.000
8.440	5949.260	20.268	470.750	574.527	20.000
8.460	5957.900	32.399	404.250	630.124	21.000
8.480	5965.540	45.189	360.833	645.735	20.000
8.500	5972.280	58.026	301.250	632.491	18.000
8.520	5977.700	70.310	261.583	590.457	20.000
8.540	5982.880	81.565	248.833	537.547	21.000
8.560	5987.560	91.791	214.250	483.613	21.000
8.580	5991.440	100.866	179.500	420.850	20.000
8.600	5994.760	108.651	147.500	363.654	18.000
8.620	5997.400	115.438	125.250	309.592	20.000
8.640	5999.840	121.088	115.333	262.696	20.000
